D-Foundations DUMP FILE
==============================================================================
COMPANY    : Stichting Deltares 

DATE       : 4/7/2023
TIME       : 2:03:44 PM
FILENAME   : D:\pvcsprojects\applications\DFoundations\trunk\release\Projects\Examples\Tutorial-5.fod
CREATED BY : D-Foundations version 23.1.1.40340
==========================    BEGINNING OF DATA     ==========================
[DUMPFILE]
[INPUT DATA]
[VERSION]
Soil=1010
D-Foundations=1024
[END OF VERSION]

[VERSION EXTERNALS]
DGSFoundationCalc.dll=23.1.1.40340
[END OF VERSION EXTERNALS]

[MODEL]
1 : Model = Tension Piles (EC7-NL)
[END OF MODEL]
[SOIL COLLECTION]
    5 = number of items
[SOIL]
Clay, clean, moderate
SoilColor=5866717
SoilSoilType=3
SoilGamDry=17.00
SoilGamWet=17.00
SoilInitialVoidRatio=0.001001
SoilDiameterD50=0.00000
SoilMinVoidRatio=0.400
SoilMaxVoidRatio=0.800
SoilCohesion=0.00
SoilPhi=17.50
SoilCu=0.00
SoilMaxConeResistType=0
SoilMaxConeResist=0.00
SoilUseTension=0
SoilCa=0.0000000
SoilCcIndex=0.0000000
[END OF SOIL]
[SOIL]
Loam, sl san, moderate
SoilColor=9544960
SoilSoilType=2
SoilGamDry=20.00
SoilGamWet=20.00
SoilInitialVoidRatio=0.001001
SoilDiameterD50=0.00000
SoilMinVoidRatio=0.400
SoilMaxVoidRatio=0.800
SoilCohesion=0.00
SoilPhi=27.50
SoilCu=0.00
SoilMaxConeResistType=0
SoilMaxConeResist=0.00
SoilUseTension=1
SoilCa=0.0000000
SoilCcIndex=0.0000000
[END OF SOIL]
[SOIL]
Peat, mod pl, moderate
SoilColor=5953498
SoilSoilType=4
SoilGamDry=12.50
SoilGamWet=12.50
SoilInitialVoidRatio=0.001001
SoilDiameterD50=0.00000
SoilMinVoidRatio=0.400
SoilMaxVoidRatio=0.800
SoilCohesion=0.00
SoilPhi=15.00
SoilCu=0.00
SoilMaxConeResistType=0
SoilMaxConeResist=0.00
SoilUseTension=1
SoilCa=0.0000000
SoilCcIndex=0.0000000
[END OF SOIL]
[SOIL]
Sand, clean, moderate
SoilColor=5636095
SoilSoilType=1
SoilGamDry=18.00
SoilGamWet=20.00
SoilInitialVoidRatio=0.256082
SoilDiameterD50=0.30000
SoilMinVoidRatio=0.400
SoilMaxVoidRatio=0.800
SoilCohesion=0.00
SoilPhi=32.50
SoilCu=0.00
SoilMaxConeResistType=0
SoilMaxConeResist=0.00
SoilUseTension=1
SoilCa=0.0000000
SoilCcIndex=0.0000000
[END OF SOIL]
[SOIL]
Undetermined
SoilColor=16777215
SoilSoilType=2
SoilGamDry=0.01
SoilGamWet=0.02
SoilInitialVoidRatio=0.000000
SoilDiameterD50=0.20000
SoilMinVoidRatio=0.400
SoilMaxVoidRatio=0.800
SoilCohesion=0.00
SoilPhi=0.00
SoilCu=0.00
SoilMaxConeResistType=0
SoilMaxConeResist=0.00
SoilUseTension=1
SoilCa=1.0000000
SoilCcIndex=1.0000000
[END OF SOIL]
[END OF SOIL COLLECTION]

[RUN IDENTIFICATION]



Tutorial 5 for D-Foundations
Parking Garage on Tension Piles
-

[END OF RUN IDENTIFICATION]
[CPT LIST]
[NUMBER OF CPTS]
1
--------------------------------------
[CPTNAME]
CPT 01
[END OF CPTNAME]
[PROJECT NAME]
Unknown
[END OF PROJECT NAME]
[PROJECTID]

[END OF PROJECTID]
[PROJECT NUMBER]

[END OF PROJECT NUMBER]
[PROJECT SUBNUMBER]

[END OF PROJECT SUBNUMBER]
[LOCATION NAME]
Unknown
[END OF LOCATION NAME]
[CLIENT NAME]
Unknown
[END OF CLIENT NAME]
[COMPANYID]
Unknown
[END OF COMPANYID]
[FILEDATE]
2008-08-22
[END OF FILEDATE]
[FILEOWNER]
Unknown
[END OF FILEOWNER]
[GEF VERSION]
Unknown
[END OF GEF VERSION]
[PROCEDURECODE]
Unknown
[END OF PROCEDURECODE]
[ObjectID]
0
[END OF ObjectID]
[STARTDATE]
2008-08-22
[END OF STARTDATE]
[STARTTIME]

[END OF STARTTIME]
[EXCAVATION TYPE]
1 : Before
[END OF EXCAVATION TYPE]
[TIMEORDER TYPE]
1 : CPT - Excavation - Install
[END OF TIMEORDER TYPE]
[CPT TYPE]
1 : Electronic CPT
[END OF CPT TYPE]
[USAGE CONE VALUE]
0 : Mechanical qc required
[END OF USAGE CONE VALUE]
[XY COORDINATE SYSTEM]
Unknown
[END OF XY COORDINATE SYSTEM]
[XWORLD]
  987000000.000
[END OF XWORLD]
[XWORLD ACCURACY]
987000000.00000
[END OF XWORLD ACCURACY]
[YWORLD]
  987000000.000
[END OF YWORLD]
[YWORLD ACCURACY]
987000000.00000
[END OF YWORLD ACCURACY]
[GROUNDLEVEL]
         -0.690
[END OF GROUNDLEVEL]
[GROUNDLEVEL ACCURACY]
987000000.00000
[END OF GROUNDLEVEL ACCURACY]
[GROUNDLEVEL WAS MEASURED]
0 : True
[END OF GROUNDLEVEL WAS MEASURED]
[LEVELTEXT]

[END OF LEVELTEXT]
[PRE EXCAVATION]
          0.000
[END OF PRE EXCAVATION]
[WATERLEVEL]
  987000000.000
[END OF WATERLEVEL]
[XLOCAL]
          0.000
[END OF XLOCAL]
[YLOCAL]
          0.000
[END OF YLOCAL]
[LOCAL X CROSSSECTION]
          0.000
[END OF LOCAL X CROSSSECTION]
[INTERPRETATION MODEL]
0
[END OF INTERPRETATION MODEL]
[INTERPRETATION MODEL STRESSDEPENDENT]
0 : False
[END OF INTERPRETATION MODEL STRESSDEPENDENT]
[DEPTHRANGE]
         10.000
[END OF DEPTHRANGE]
[GRAPH MAX PERCENTAGE]
  10
[END OF GRAPH MAX PERCENTAGE]
[GRAPH WIDTH]
         10.000
[END OF GRAPH WIDTH]
[GRAPH LINEWIDTH]
   1
[END OF GRAPH LINEWIDTH]
[GRAPH BORDERWIDTH]
   1
[END OF GRAPH BORDERWIDTH]
[GRAPH BORDERCOLOR]
              0
[END OF GRAPH BORDERCOLOR]
[GRAPH FRICTIONCOLOR]
       16711680
[END OF GRAPH FRICTIONCOLOR]
[GRAPH QCCOLOR]
            255
[END OF GRAPH QCCOLOR]
[GRAPH PLANE COLOR]
              0
[END OF GRAPH PLANE COLOR]
[GRAPH FIT FOR SIZE]
0 : True
[END OF GRAPH FIT FOR SIZE]
[GRAPH FIT SYMBOL FOR SIZE]
0 : True
[END OF GRAPH FIT SYMBOL FOR SIZE]
[GRAPH SYMBOL SIZE]
          1.000
[END OF GRAPH SYMBOL SIZE]
[VOID VALUE DEPTH]
  987000000.000
[END OF VOID VALUE DEPTH]
[VOID VALUE CONE RESISTANCE]
  987000000.000
[END OF VOID VALUE CONE RESISTANCE]
[VOID VALUE PORE WATER PRESSURE]
987000000.000000
[END OF VOID VALUE PORE WATER PRESSURE]
[VOID VALUE SLEEVE FRICTION]
987000000.000000
[END OF VOID VALUE SLEEVE FRICTION]
[VOID VALUE FRICTION NUMBER]
987000000.000000
[END OF VOID VALUE FRICTION NUMBER]
[VOID VALUE EQUIVALENT ELECTRONIC QC]
987000000.000000
[END OF VOID VALUE EQUIVALENT ELECTRONIC QC]
[MEASURED DATA]
[TABLE]
DataCount=1351
[COLUMN INDICATION]
z
qc
rw
[END OF COLUMN INDICATION]
[DATA]
      -0.690        0.000        0.000000
      -0.710        9.450        0.151800
      -0.730       13.717        0.177430
      -0.750       16.833        0.195270
      -0.770       18.311        0.201490
      -0.790       18.089        0.194660
      -0.810       16.811        0.180600
      -0.830       14.994        0.170160
      -0.850       13.006        0.159210
      -0.870       10.892        0.147600
      -0.890        8.690        0.131270
      -0.910        6.595        0.111160
      -0.930        4.795        0.092100
      -0.950        3.434        0.077880
      -0.970        2.667        0.067880
      -0.990        1.997        0.055210
      -1.010        1.551        0.049540
      -1.030        1.031        0.040710
      -1.050        0.811        0.031880
      -1.070        0.661        0.026990
      -1.090        0.567        0.022710
      -1.110        0.528        0.019160
      -1.130        0.550        0.019540
      -1.150        0.594        0.020430
      -1.170        0.639        0.021270
      -1.190        0.672        0.020710
      -1.210        0.689        0.020710
      -1.230        0.833        0.018770
      -1.250        1.067        0.017960
      -1.270        1.300        0.014630
      -1.290        1.667        0.008820
      -1.310        2.083        0.008600
      -1.330        2.600        0.008930
      -1.350        2.889        0.009160
      -1.370        3.011        0.009210
      -1.390        3.022        0.009100
      -1.410        2.972        0.009100
      -1.430        2.928        0.009210
      -1.450        2.956        0.009320
      -1.470        3.028        0.009490
      -1.490        3.133        0.009600
      -1.510        3.261        0.009930
      -1.530        3.406        0.010270
      -1.550        3.578        0.010660
      -1.570        3.778        0.011040
      -1.590        3.978        0.011710
      -1.610        4.133        0.015880
      -1.630        4.239        0.019930
      -1.650        4.283        0.020490
      -1.670        4.267        0.021100
      -1.690        4.189        0.021180
      -1.710        4.072        0.020660
      -1.730        3.972        0.019990
      -1.750        3.922        0.019990
      -1.770        3.861        0.020380
      -1.790        3.806        0.020770
      -1.810        3.728        0.021210
      -1.830        3.683        0.021660
      -1.850        3.633        0.021820
      -1.870        3.583        0.025160
      -1.890        3.478        0.027210
      -1.910        3.417        0.023040
      -1.930        3.400        0.019210
      -1.950        3.550        0.019100
      -1.970        3.833        0.019380
      -1.990        4.206        0.019990
      -2.010        4.594        0.020820
      -2.030        4.950        0.021600
      -2.050        5.228        0.022160
      -2.070        5.422        0.025710
      -2.090        5.567        0.029210
      -2.110        5.717        0.029380
      -2.130        5.911        0.029660
      -2.150        6.156        0.029880
      -2.170        6.411        0.030160
      -2.190        6.683        0.030490
      -2.210        6.967        0.031430
      -2.230        7.278        0.032990
      -2.250        7.672        0.038270
      -2.270        8.089        0.043430
      -2.290        8.411        0.048380
      -2.310        8.539        0.056380
      -2.330        8.417        0.060490
      -2.350        8.144        0.060430
      -2.370        7.839        0.059600
      -2.390        7.539        0.058430
      -2.410        7.300        0.057490
      -2.430        7.189        0.053660
      -2.450        7.167        0.050270
      -2.470        7.172        0.050430
      -2.490        7.133        0.050660
      -2.510        7.033        0.050710
      -2.530        6.911        0.050490
      -2.550        6.794        0.050210
      -2.570        6.700        0.049930
      -2.590        6.594        0.049770
      -2.610        6.489        0.049660
      -2.630        6.372        0.049490
      -2.650        6.267        0.049160
      -2.670        6.211        0.048660
      -2.690        6.217        0.048210
      -2.710        6.294        0.044770
      -2.730        6.478        0.041710
      -2.750        6.772        0.045710
      -2.770        7.133        0.050270
      -2.790        7.528        0.049430
      -2.810        7.811        0.049430
      -2.830        8.039        0.049380
      -2.850        8.106        0.051820
      -2.870        7.983        0.056660
      -2.890        7.628        0.060600
      -2.910        7.206        0.060490
      -2.930        6.994        0.060270
      -2.950        6.967        0.060160
      -2.970        7.061        0.060380
      -2.990        7.150        0.060490
      -3.010        7.250        0.060660
      -3.030        7.317        0.060660
      -3.050        7.350        0.060660
      -3.070        7.311        0.060490
      -3.090        7.161        0.059160
      -3.110        6.989        0.058380
      -3.130        6.867        0.057820
      -3.150        6.944        0.054600
      -3.170        7.156        0.051820
      -3.190        7.406        0.056380
      -3.210        7.628        0.061160
      -3.230        7.789        0.062540
      -3.250        7.811        0.066660
      -3.270        7.672        0.070160
      -3.290        7.394        0.069710
      -3.310        7.050        0.068320
      -3.330        6.761        0.062820
      -3.350        6.606        0.057380
      -3.370        6.672        0.053040
      -3.390        7.044        0.050100
      -3.410        7.778        0.051540
      -3.430        8.722        0.053490
      -3.450        9.578        0.058770
      -3.470       10.161        0.067100
      -3.490       10.456        0.071600
      -3.510       10.600        0.072320
      -3.530       10.811        0.076100
      -3.550       11.200        0.080430
      -3.570       11.800        0.082490
      -3.590       12.622        0.088660
      -3.610       13.606        0.098660
      -3.630       14.539        0.108660
      -3.650       15.222        0.118210
      -3.670       15.572        0.123270
      -3.690       15.672        0.126820
      -3.710       15.672        0.129600
      -3.730       15.739        0.129160
      -3.750       15.983        0.129660
      -3.770       16.372        0.128270
      -3.790       16.694        0.121270
      -3.810       16.783        0.111770
      -3.830       16.617        0.108320
      -3.850       15.989        0.107210
      -3.870       15.194        0.108100
      -3.890       14.328        0.111770
      -3.910       14.017        0.115710
      -3.930       13.867        0.119880
      -3.950       13.822        0.121040
      -3.970       13.606        0.121600
      -3.990       13.461        0.121210
      -4.010       13.439        0.119660
      -4.030       13.456        0.118100
      -4.050       13.517        0.114270
      -4.070       13.800        0.112040
      -4.090       14.417        0.117210
      -4.110       15.244        0.122490
      -4.130       15.950        0.127540
      -4.150       16.222        0.132270
      -4.170       16.094        0.136270
      -4.190       15.867        0.139270
      -4.210       15.794        0.138600
      -4.230       15.911        0.138710
      -4.250       16.128        0.140040
      -4.270       16.300        0.142100
      -4.290       16.333        0.147320
      -4.310       16.156        0.151820
      -4.330       15.728        0.155320
      -4.350       15.089        0.157880
      -4.370       14.300        0.152710
      -4.390       13.461        0.146880
      -4.410       12.667        0.140600
      -4.430       11.939        0.131100
      -4.450       11.283        0.121820
      -4.470       10.722        0.116380
      -4.490       10.244        0.112210
      -4.510        9.878        0.108820
      -4.530        9.617        0.108490
      -4.550        9.406        0.107430
      -4.570        9.200        0.102990
      -4.590        9.017        0.099320
      -4.610        8.833        0.099100
      -4.630        8.644        0.098430
      -4.650        8.428        0.097600
      -4.670        8.317        0.093660
      -4.690        8.483        0.090100
      -4.710        9.144        0.090380
      -4.730       10.278        0.091600
      -4.750       11.689        0.094210
      -4.770       13.111        0.098020
      -4.790       14.406        0.098990
      -4.810       15.467        0.096930
      -4.830       16.217        0.094880
      -4.850       16.569        0.095660
      -4.870       16.478        0.105210
      -4.890       16.078        0.116880
      -4.910       15.589        0.121710
      -4.930       15.256        0.125040
      -4.950       15.017        0.129880
      -4.970       14.844        0.131320
      -4.990       14.672        0.132160
      -5.010       14.594        0.136100
      -5.030       14.489        0.139100
      -5.050       14.200        0.138820
      -5.070       13.689        0.138990
      -5.090       13.094        0.141430
      -5.110       12.422        0.144040
      -5.130       11.600        0.147990
      -5.150       10.656        0.147820
      -5.170        9.789        0.139990
      -5.190        9.456        0.130320
      -5.210       10.017        0.122770
      -5.230       11.456        0.120160
      -5.250       13.117        0.122380
      -5.270       14.356        0.127880
      -5.290       14.983        0.132380
      -5.310       15.272        0.135600
      -5.330       15.606        0.138880
      -5.350       16.122        0.139770
      -5.370       16.828        0.141880
      -5.390       17.611        0.148100
      -5.410       18.322        0.154270
      -5.430       18.739        0.157600
      -5.450       18.967        0.163160
      -5.470       19.022        0.168270
      -5.490       19.061        0.173040
      -5.510       19.128        0.178040
      -5.530       19.228        0.181100
      -5.550       19.278        0.180660
      -5.570       19.128        0.180660
      -5.590       18.817        0.181430
      -5.610       18.422        0.182600
      -5.630       18.000        0.186710
      -5.650       17.528        0.189990
      -5.670       16.894        0.188430
      -5.690       16.039        0.184930
      -5.710       15.050        0.172270
      -5.730       14.172        0.155430
      -5.750       13.678        0.140210
      -5.770       13.817        0.123770
      -5.790       14.661        0.111770
      -5.810       15.956        0.108990
      -5.830       17.161        0.112430
      -5.850       17.694        0.121430
      -5.870       17.489        0.132210
      -5.890       16.756        0.145210
      -5.910       16.044        0.157600
      -5.930       15.467        0.162660
      -5.950       14.994        0.166490
      -5.970       14.456        0.169100
      -5.990       13.822        0.167490
      -6.010       13.067        0.161660
      -6.030       12.233        0.151380
      -6.050       11.372        0.140100
      -6.070       10.556        0.128270
      -6.090        9.872        0.113210
      -6.110        9.394        0.098710
      -6.130        9.178        0.088660
      -6.150        9.250        0.080430
      -6.170        9.650        0.074320
      -6.190       10.417        0.073100
      -6.210       11.450        0.079160
      -6.230       12.500        0.089210
      -6.250       13.356        0.099880
      -6.270       13.978        0.110770
      -6.290       14.450        0.120930
      -6.310       14.778        0.130100
      -6.330       14.889        0.138270
      -6.350       14.778        0.142540
      -6.370       14.544        0.146320
      -6.390       14.322        0.149710
      -6.410       14.133        0.149100
      -6.430       13.967        0.147930
      -6.450       13.772        0.143210
      -6.470       13.506        0.138820
      -6.490       13.272        0.138160
      -6.510       13.139        0.134540
      -6.530       13.056        0.131100
      -6.550       12.856        0.131040
      -6.570       12.439        0.131100
      -6.590       11.833        0.130990
      -6.610       11.144        0.130210
      -6.630       10.450        0.128990
      -6.650        9.728        0.127490
      -6.670        8.967        0.122490
      -6.690        8.239        0.117040
      -6.710        7.750        0.111320
      -6.730        7.694        0.102660
      -6.750        7.978        0.097880
      -6.770        8.317        0.092240
      -6.790        8.517        0.085540
      -6.810        8.611        0.079430
      -6.830        8.700        0.071660
      -6.850        8.644        0.065600
      -6.870        8.556        0.066040
      -6.890        8.450        0.070430
      -6.910        8.672        0.072490
      -6.930        9.022        0.078540
      -6.950        9.428        0.087880
      -6.970        9.700        0.093210
      -6.990        9.833        0.098040
      -7.010        9.778        0.102210
      -7.030        9.550        0.105600
      -7.050        9.261        0.108270
      -7.070        9.083        0.103770
      -7.090        9.106        0.099430
      -7.110        9.211        0.099040
      -7.130        9.278        0.099600
      -7.150        9.233        0.100430
      -7.170        9.122        0.100880
      -7.190        9.000        0.100380
      -7.210        8.856        0.099270
      -7.230        8.656        0.098100
      -7.250        8.433        0.094100
      -7.270        8.306        0.090660
      -7.290        8.278        0.090820
      -7.310        8.294        0.091040
      -7.330        8.228        0.091210
      -7.350        8.006        0.091160
      -7.370        7.678        0.090880
      -7.390        7.344        0.090380
      -7.410        7.044        0.089770
      -7.430        6.728        0.089160
      -7.450        6.367        0.088540
      -7.470        5.939        0.087990
